HD17092
 
Center:  41.592146   49.653072
 
Targets:
 
 39.911552   49.799787
 39.799474   49.222580
 42.095835   49.882814
 40.452302   50.942976
 39.809919   50.039341
 40.534615   49.324393
 42.421345   49.174237
 40.922547   50.683532
 42.944675   48.553041
 39.878533   50.231547
 43.416885   50.407524
 42.335741   49.861950
 43.219096   50.074773
 40.447254   50.123504
 41.448690   51.106163
 42.490336   48.802174
 41.486219   48.828692
 42.062494   49.275321
 41.134261   50.629123
 41.059157   50.875335
 42.620961   48.520157
 42.524173   49.682684
 42.857941   50.188690
 42.109605   48.802524
 39.533506   49.084874
 42.432922   50.101076
 40.958029   49.481482
 40.433031   49.750773
 41.097859   49.661307
 42.631918   49.203303
 40.182484   48.802030
 40.787084   49.048446
 40.867487   49.861262
 41.954401   48.250096
 41.419585   50.360972
 42.278887   50.469373
 39.544075   50.037031
 40.153956   48.867449
 40.334231   49.384076
 41.285635   48.301772
 41.631030   48.296057
 41.327001   48.391170
 42.943528   49.505257
 40.228682   48.680960
 40.220514   48.840624
 41.044801   50.835037
 41.218696   50.228017
 40.023320   49.649020
 42.369628   48.424509
 41.979232   48.791553
 40.805225   49.107727
 43.132240   48.711448
 40.853275   48.634930
 41.514151   48.859693
 43.183157   48.910925
 41.715611   48.283473
 41.242593   48.535075
 39.458679   50.185036
 40.335310   50.229408
 42.324717   48.352222
 39.470449   49.310720
 40.721440   50.043015
 40.622816   49.783641
 39.718867   49.910335
 41.724667   49.054395
 43.232633   50.359763
 39.895534   48.700978
 41.038909   48.962488
 41.144456   48.777474
 41.586966   50.690790
 42.747993   49.460056
 40.129135   50.282422
 42.709199   49.362283
 41.039793   51.045755
 41.421514   50.461961
 41.764368   50.725376
 39.870687   49.552901
 41.614309   49.118877
 40.029042   49.120301
 39.788020   49.834722
 40.852757   49.634694
 40.603264   50.497098
 40.526885   49.123088
 42.047131   48.776355
 40.737865   48.826955
 41.504044   48.304828
 40.705841   49.037823
 40.949403   50.407931
 42.948428   50.460291
 41.757456   48.929329
 40.831865   48.986330
 41.271841   50.719615
 41.879669   48.927300
 43.399884   49.534080
 42.108145   49.810902
 40.902941   49.803064
 42.870254   50.676213
 40.176088   49.865557
 41.488807   49.093150
 41.281084   50.325026
 39.811327   49.599487
 42.823085   49.137305
 41.188270   50.715162
 41.989147   48.492165
 40.489292   50.570718
 41.143972   50.691594
 40.834934   49.675994
 42.893562   50.887314
 42.329674   50.627157
 43.089474   50.777145
 41.791213   50.660247
 42.828308   50.856953
 42.287409   50.695300
 39.827451   49.795599
 41.797742   48.627584
 41.125961   51.052825
 39.875943   49.102519
 40.512219   49.752506
 40.903588   50.312436
 40.765089   50.867406
 40.987647   50.932385
 41.786196   49.218127
 43.284235   50.673794
 39.713381   48.945303
 40.642360   50.360483
 41.229627   48.835120
 41.754223   49.115923
 41.389884   48.557369
 40.929229   50.828772
 43.130989   49.269618
 42.416910   48.280373
 39.951605   50.328369
 43.856524   49.751573
 41.002718   48.914198
 41.723703   48.344577
 40.855333   50.620269
 41.533005   49.898934
 41.629080   48.392279
 42.760483   48.550722
 41.678623   50.529774
 40.031257   49.026908
 40.173065   49.321149
 39.368452   49.812940
 42.334077   49.321449
 39.475204   49.144028
 41.459837   48.694366
 41.741949   50.026326
 40.410218   49.369454
 41.821194   51.125552
 39.402357   49.876971
 39.731766   49.371235
 41.308405   49.899896
 39.506382   49.995963
 39.882720   49.991558
 42.212126   50.735454
 40.901063   49.967421
 40.401551   49.789637
 39.780636   49.995485
 39.676062   48.997211
 42.124050   48.294785
 40.121716   49.917369
 39.789947   50.405428
 42.558290   48.409904
 39.375874   49.644555
 41.958683   48.385513
 
Guide Stars:
 
 41.318345   49.518039
 41.966759   49.573537
 41.744770   49.414735
 41.324484   49.447070
 41.379550   49.387289
 41.218343   49.457928
 42.177818   49.460939
 42.262867   49.569720
 41.432931   49.207350
 41.875775   49.226570
 41.440753   50.129665
 41.682323   50.139167
 42.362242   49.810444
 41.787629   50.183439
 41.665895   50.229213
 41.858909   49.101598
 41.761692   50.221437
 41.402775   50.240006
 41.466528   49.049288
 41.289720   49.050100
 41.749328   50.282109
 42.037837   50.224134
 41.476803   50.298267
 41.211487   49.027155
 42.621806   49.794338
 41.933051   50.300883
 41.820228   50.339128
 42.181189   50.248602
 41.278434   48.975230
 42.510375   50.076192
 42.483250   50.132614
 41.668115   50.402740
 42.259562   48.991922
 42.090431   50.387006
 41.760062   48.783099
 42.839956   50.028514
 41.860037   48.771637
 42.462951   50.361221
 42.643151   50.289472
 41.567412   48.721817
 42.880009   49.227670
 42.137628   50.525824
 41.645612   48.711195
 41.835332   48.708541
 41.936468   48.719807
 42.895590   50.132958
 43.135323   49.675739
 42.614123   48.905770
 42.102381   50.619178
 41.304987   50.689323
 42.335258   48.718046
 41.917450   48.616978
 41.413506   50.705606
 43.183039   49.414284
 41.681626   50.718202
 42.065217   50.688796
 43.252556   49.795489
 41.530847   50.741717
 42.586639   48.755670
 42.261362   48.634703
 43.117659   49.132647
 42.107729   48.575817
 40.404745   48.811263
 41.457875   50.808273
 43.026970   50.356894
 43.137734   49.065481
 42.804548   48.797623
 40.323902   48.826281
 42.780625   50.567137
 42.552985   48.590480
 43.281837   48.996292
 42.702862   48.592371
 43.372725   50.260473
 43.006692   50.583491
 41.350095   50.951517
 43.502881   49.166877
 41.853878   48.262400
 43.760150   49.589303
 43.508416   49.001768
 42.447659   48.351698
 41.307247   48.248020
 43.558287   49.039569
 43.687137   50.160270
 41.689800   51.094631
 
Reddening Standards:
 
 40.984482   49.549107
 41.150966   49.336167
 41.544338   49.247542
 40.436666   50.230310
 39.808747   49.170124
 40.063239   49.443200
 41.251422   48.225418
 43.096215   48.955111
 42.049417   51.031606
 40.292743   48.728026
 40.903615   50.866818
 42.580878   50.854116
 41.332644   50.548535
 43.301479   49.587394
 
Spectrophotometric Standards:
 
 41.523422   49.752482
 41.483918   49.540597
 41.911283   49.685313
 41.093041   49.808702
 41.472110   50.023494
 41.587820   50.068683
 42.177485   49.895710
 42.273164   49.484210
 42.430459   49.751707
 41.068006   49.146131
 40.526312   49.581608
 41.690603   48.939592
 41.832034   48.951509
 41.471374   48.911274
 42.330339   49.014860
 40.283875   49.620537
 40.720530   50.294157
 40.511909   49.169242
 40.329685   49.979346
 41.558383   48.766892
 42.323385   48.874852
 40.846286   48.876484
 40.301711   49.217808
 41.714963   50.687451
 39.966150   49.520897
 41.172162   48.619420
 42.415240   48.695622
 41.822792   50.751911
 40.381116   50.444568
 42.955922   48.983222
 42.009359   48.571101
 40.132537   49.059780
 41.603096   48.523432
 41.759774   48.523947
 40.800785   48.603686
 40.646399   48.635153
 40.695988   50.727378
 41.252052   50.852734
 42.479465   48.550218
 43.333820   49.117111
 39.669267   49.400141
 42.305326   50.916778
 40.752108   48.413688
 41.848897   51.003293
 39.542607   49.351076
 41.216997   51.032649
 40.601908   50.907399
 40.465865   48.445103
 
Sky fibers:
 
 39.911552   49.899787
 39.799474   49.322580
 39.799474   49.122580
 42.421345   49.274237
 40.922547   50.783532
 42.944675   48.653041
 39.878533   50.331547
 39.878533   50.131547
 42.335741   49.761950
 43.219096   50.174773
 43.219096   49.974773
 42.490336   48.902174
 42.062494   49.375321
 42.062494   49.175321
 41.134261   50.729123
 41.134261   50.529123
 41.059157   50.975335
 41.059157   50.775335
 42.620961   48.620157
 42.620961   48.420157
 42.524173   49.782684
 42.524173   49.582684
 42.109605   48.902524
 42.109605   48.702524
 42.432922   50.201076
 42.432922   50.001076
 40.958029   49.581482
 40.958029   49.381482
 40.433031   49.850773
 40.433031   49.650773
 42.631918   49.303303
 42.631918   49.103303
 40.182484   48.902030
 40.182484   48.702030
 40.787084   49.148446
 40.787084   48.948446
 42.278887   50.569373
 39.544075   50.137031
 39.544075   49.937031
 40.153956   48.967449
 40.153956   48.767449
 40.334231   49.284076
 42.943528   49.405257
 40.228682   48.780960
 40.228682   48.580960
 40.220514   48.940624
 40.220514   48.740624
 41.218696   50.328017
 42.369628   48.524509
 42.369628   48.324509
 41.979232   48.891553
 41.979232   48.691553
 40.853275   48.734930
 40.853275   48.534930
 43.183157   49.010925
 43.183157   48.810925
 41.715611   48.183473
 41.242593   48.635075
 40.335310   50.329408
 40.335310   50.129408
 42.324717   48.452222
 42.324717   48.252222
 40.721440   50.143015
 40.721440   49.943015
 40.622816   49.883641
 40.622816   49.683641
 39.718867   50.010335
 39.718867   49.810335
 43.232633   50.459763
 43.232633   50.259763
 41.038909   49.062488
 41.038909   48.862488
 41.144456   48.877474
 41.144456   48.677474
 41.586966   50.790790
 41.586966   50.590790
 40.129135   50.382422
 41.764368   50.625376
 39.870687   49.652901
 39.870687   49.452901
 41.614309   49.018877
 40.852757   49.734694
 40.852757   49.534694
 42.047131   48.876355
 42.047131   48.676355
 41.504044   48.404828
 41.504044   48.204828
 42.948428   50.560291
 42.948428   50.360291
 41.879669   49.027300
 41.879669   48.827300
 43.399884   49.634080
 43.399884   49.434080
 40.902941   49.703064
 42.870254   50.776213
 42.870254   50.576213
 40.176088   49.965557
 40.176088   49.765557
 41.488807   49.193150
 41.488807   48.993150
 41.281084   50.425026
 41.281084   50.225026
 39.811327   49.699487
 39.811327   49.499487
 42.823085   49.237305
 42.823085   49.037305
 41.188270   50.815162
 41.188270   50.615162
 40.489292   50.470718
 41.143972   50.791594
 41.143972   50.591594
 40.834934   49.775994
 40.834934   49.575994
 42.329674   50.727157
 42.329674   50.527157
 39.875943   49.202519
 39.875943   49.002519
 40.512219   49.652506
 39.713381   48.845303
 40.642360   50.460483
 40.642360   50.260483
 41.229627   48.935120
 41.229627   48.735120
 41.389884   48.657369
 41.389884   48.457369
 40.929229   50.928772
 40.929229   50.728772
 43.130989   49.369618
 43.130989   49.169618
 39.951605   50.228369
 41.002718   48.814198
 41.723703   48.444577
 41.723703   48.244577
 40.855333   50.720269
 40.855333   50.520269
 41.533005   49.998934
 41.533005   49.798934
 42.760483   48.650722
 42.760483   48.450722
 40.173065   49.421149
 40.173065   49.221149
 42.334077   49.421449
 42.334077   49.221449
 41.459837   48.794366
 41.459837   48.594366
 41.741949   50.126326
 41.741949   49.926326
 40.410218   49.469454
 39.731766   49.471235
 39.731766   49.271235
 41.308405   49.799896
 42.212126   50.835454
 40.401551   49.889637
 40.401551   49.689637
 39.676062   49.097211
 42.124050   48.394785
 40.121716   50.017369
 40.121716   49.817369
 42.558290   48.509904
 42.558290   48.309904
