HD17156
 
Center:  42.435362   71.753233
 
Targets:
 
 42.034784   71.965890
 37.775297   72.021564
 44.078280   72.878233
 42.605260   72.007215
 39.778114   72.112296
 44.435056   70.696272
 44.632934   70.688195
 44.388426   72.355992
 38.638312   71.162716
 42.317720   71.010515
 38.857543   72.396816
 40.608941   72.151279
 43.907981   72.104974
 38.071363   71.767371
 39.142818   72.200277
 42.443770   73.039267
 44.222162   71.068650
 41.681123   71.967106
 44.707191   71.725987
 40.762882   70.955555
 45.390755   71.986433
 41.568134   71.791990
 41.117741   72.246681
 41.447430   72.583313
 46.527934   71.457422
 38.667557   71.389508
 44.158872   71.414715
 43.499441   71.912863
 46.767583   71.921904
 42.750791   70.283327
 37.818361   71.787008
 45.061712   72.427938
 42.489367   71.017344
 43.367101   73.192981
 41.363855   70.655308
 41.344405   73.167354
 45.541138   71.338426
 43.197743   70.556796
 41.633844   72.620105
 38.400657   71.488708
 39.983907   72.925764
 39.582688   70.859961
 39.961480   71.742678
 38.519145   72.370264
 43.120204   71.257678
 43.631334   71.481349
 38.105828   72.301001
 42.526986   71.956534
 38.881109   71.646629
 41.850029   71.713279
 43.611034   72.916137
 44.243395   71.870731
 39.924808   72.031838
 46.023900   72.564148
 42.991691   72.447963
 46.928138   71.469574
 46.318723   72.526431
 39.425523   70.948542
 45.257523   72.722720
 42.469962   72.817111
 39.243522   72.298496
 46.295445   71.203863
 41.149752   71.585817
 42.662753   72.372427
 42.595127   71.683151
 45.775445   72.553706
 46.044031   72.442676
 43.046933   73.209325
 39.965237   70.917684
 42.382971   72.555499
 43.415864   72.623102
 38.477163   71.774844
 44.779930   73.043691
 40.320452   72.019230
 46.014252   72.223754
 40.293983   71.327202
 39.124100   71.830632
 39.221526   72.737239
 44.224171   72.627696
 43.164027   72.720439
 39.783660   71.563596
 43.013801   72.488917
 40.364603   70.627847
 43.471537   73.130500
 40.897627   72.202623
 41.264082   72.171242
 46.894256   72.220235
 43.919056   72.944992
 42.862114   70.875641
 45.762459   70.990606
 41.883424   70.359907
 45.380839   72.330971
 39.654885   71.960867
 45.172096   72.178409
 43.349077   73.040227
 38.431827   71.271792
 38.872681   72.640118
 43.646232   70.631838
 44.151179   72.503735
 40.744113   71.916099
 39.218912   72.157730
 41.938142   72.833370
 44.035143   72.930666
 38.359579   71.160297
 39.705441   72.954657
 40.231041   71.700685
 39.445157   72.010343
 38.653461   71.759157
 39.732813   72.175956
 39.948074   72.569164
 43.060146   72.113688
 39.722500   71.059708
 37.671073   71.891477
 44.764404   71.674507
 44.425526   72.201706
 41.869952   72.511331
 43.673767   72.036769
 40.085368   71.522176
 45.240394   72.208909
 41.336825   71.034068
 40.815258   70.434503
 40.723196   71.189059
 45.329156   71.593214
 41.554431   70.835117
 39.240144   72.394295
 42.256461   71.619563
 43.464906   72.392992
 45.677464   72.706193
 38.329113   71.837311
 44.438866   70.453449
 40.082777   71.617167
 45.327163   71.241745
 45.521012   72.871067
 38.907145   71.477272
 45.204296   71.662649
 42.560620   71.809355
 39.543372   71.604261
 40.548630   72.293075
 44.211229   71.734472
 45.249592   71.024367
 40.854215   72.357166
 40.754495   70.992470
 41.035691   72.318300
 44.911149   70.618252
 40.619652   71.673291
 46.104037   71.371899
 45.920016   72.541471
 38.342061   71.441339
 40.546130   71.133145
 42.594984   70.645360
 41.362196   71.701543
 42.121462   72.609953
 42.693523   71.058656
 41.410426   71.339497
 42.927581   72.366774
 41.611667   72.075637
 42.723304   71.951207
 44.416731   71.700345
 39.130346   71.889745
 40.582794   71.924940
 40.769028   70.776140
 46.489316   72.129150
 38.862735   72.181081
 40.067775   73.002754
 46.599159   71.123358
 42.367746   71.570601
 43.131254   71.821158
 46.999972   72.039505
 44.471427   73.044253
 44.065324   72.234954
 38.583308   71.915156
 41.727307   72.540797
 39.467928   72.661423
 43.043548   70.774374
 40.091706   70.853703
 39.926615   71.968747
 38.770271   71.409077
 43.467210   70.335074
 42.146089   71.114037
 41.730802   71.457151
 41.028727   70.366962
 38.874278   72.063191
 42.586282   70.724335
 40.560892   71.077233
 44.051709   71.590946
 42.400202   71.115533
 43.159658   70.358220
 39.407597   72.532806
 39.788059   72.647947
 44.287906   72.965399
 39.746305   71.287120
 39.223762   72.259196
 43.839093   71.482235
 39.134316   72.110263
 45.059724   70.805391
 43.592329   72.712767
 45.970881   72.477783
 43.090823   70.871702
 44.367378   71.945142
 41.861231   72.303453
 
Guide Stars:
 
 42.311534   71.737317
 42.775931   71.664889
 42.567303   71.599209
 42.922712   71.675509
 42.094803   71.892484
 42.048448   71.929137
 42.101570   71.553862
 41.772425   71.663530
 42.913220   71.493152
 41.998037   72.021581
 42.812377   72.098327
 42.993728   71.374812
 43.595425   71.973603
 41.090303   71.667159
 41.842011   72.165551
 41.532120   72.118630
 44.038209   71.649417
 40.769070   71.710453
 41.394703   72.203652
 40.615938   72.011287
 40.881068   72.156378
 41.425820   72.315003
 43.918787   71.307003
 43.083609   71.109943
 40.833925   71.291014
 41.126727   71.141549
 44.705059   71.529445
 44.136665   72.341025
 40.457957   71.252125
 40.145487   72.147584
 39.790816   71.739977
 41.812867   72.576137
 39.935260   71.442508
 42.428695   70.897250
 39.679012   72.032979
 41.014106   70.966896
 40.491298   72.440002
 39.600212   71.515692
 44.746207   72.360423
 43.740558   72.602455
 39.421126   71.775634
 41.422350   72.672100
 44.344478   70.994420
 40.144624   71.076628
 39.308112   71.588770
 42.719439   70.759880
 39.470338   71.408940
 41.131785   70.846448
 45.381089   72.163605
 39.984331   71.117930
 45.151864   71.183895
 45.743175   71.656612
 43.551481   72.751121
 45.257162   72.403425
 38.956353   71.756878
 44.534556   70.891150
 39.272603   71.240584
 44.783388   72.634776
 46.188412   71.736098
 45.429564   71.055542
 44.674584   70.805409
 38.579828   71.574745
 46.374673   71.803623
 38.647881   72.135512
 43.112467   70.528445
 38.797475   72.329767
 43.494773   70.536125
 46.397839   72.098562
 43.488209   72.999378
 46.513583   71.509496
 38.448292   72.227598
 39.264623   72.659271
 42.777738   70.431190
 38.879070   71.057709
 46.684712   71.722937
 39.787353   70.725995
 46.688422   71.671199
 38.165470   72.019598
 46.523378   71.345537
 46.128141   71.076488
 43.509470   70.426181
 46.221146   72.493064
 40.506450   73.011867
 44.511023   70.533512
 45.397362   70.735278
 46.027989   72.612648
 46.872237   71.949139
 45.732990   70.839265
 38.053977   72.100081
 46.841856   72.110278
 40.296657   70.492594
 44.550795   70.487303
 40.476829   70.458743
 41.795278   70.326814
 39.539798   70.651292
 
Reddening Standards:
 
 42.995408   71.560062
 41.349497   71.981835
 43.010784   71.947387
 40.773676   71.127558
 42.218581   72.036881
 41.956100   71.346947
 42.925672   70.759071
 43.183870   70.665824
 39.128159   70.941445
 43.819137   70.819678
 40.833876   71.767150
 43.847720   71.959942
 39.255020   70.732218
 42.267682   71.390690
 
Spectrophotometric Standards:
 
 42.560620   71.809355
 42.670416   71.451900
 41.327991   71.810519
 41.313964   71.759440
 41.109242   71.802440
 41.955698   72.144823
 41.281740   71.384075
 42.457282   72.291041
 40.746148   71.858751
 43.603752   72.275803
 40.503863   71.427792
 44.596929   71.954355
 40.575104   72.220808
 40.062754   71.580663
 39.838516   71.682471
 45.266183   71.786793
 40.400561   71.138842
 45.284016   71.910504
 39.633892   71.368891
 39.622088   72.323445
 45.716938   71.941043
 40.566866   70.890216
 40.352089   72.590414
 41.674810   72.796784
 41.574333   70.718884
 42.956949   70.690955
 40.516535   72.701870
 44.601961   70.860920
 39.564112   72.464879
 39.009739   72.217877
 40.653848   70.742668
 38.888602   71.303755
 45.401103   72.570611
 39.735092   70.872366
 39.588434   72.634191
 45.044991   72.708737
 46.405576   71.671775
 38.591679   71.445041
 45.353818   72.669929
 39.171800   70.994124
 39.961075   72.800662
 39.282390   70.893616
 40.582164   72.981269
 43.627842   70.443555
 41.192706   73.081238
 38.035156   72.031963
 45.837882   72.687004
 39.891499   72.973648
 
Sky fibers:
 
 44.078280   72.978233
 42.605260   72.107215
 42.605260   71.907215
 39.778114   72.212296
 39.778114   72.012296
 44.435056   70.796272
 44.435056   70.596272
 44.388426   72.455992
 44.388426   72.255992
 43.907981   72.204974
 38.071363   71.867371
 38.071363   71.667371
 44.222162   71.168650
 44.222162   70.968650
 44.707191   71.825987
 44.707191   71.625987
 45.390755   72.086433
 45.390755   71.886433
 41.568134   71.891990
 41.568134   71.691990
 41.117741   72.346681
 41.117741   72.146681
 38.667557   71.489508
 38.667557   71.289508
 44.158872   71.514715
 43.499441   72.012863
 43.499441   71.812863
 46.767583   72.021904
 46.767583   71.821904
 42.750791   70.383327
 45.061712   72.527938
 45.061712   72.327938
 41.363855   70.755308
 41.363855   70.555308
 45.541138   71.438426
 39.582688   70.959961
 38.519145   72.270264
 43.120204   71.357678
 43.120204   71.157678
 43.631334   71.581349
 43.631334   71.381349
 42.526986   72.056534
 42.526986   71.856534
 41.850029   71.813279
 41.850029   71.613279
 44.243395   71.970731
 44.243395   71.770731
 39.924808   72.131838
 39.924808   71.931838
 39.425523   71.048542
 39.425523   70.848542
 45.257523   72.822720
 42.469962   72.717111
 46.295445   71.303863
 46.295445   71.103863
 42.662753   72.472427
 42.662753   72.272427
 45.775445   72.653706
 45.775445   72.453706
 39.965237   71.017684
 39.965237   70.817684
 42.382971   72.655499
 42.382971   72.455499
 38.477163   71.874844
 40.320452   72.119230
 40.320452   71.919230
 40.293983   71.427202
 40.293983   71.227202
 39.124100   71.730632
 43.164027   72.620439
 40.364603   70.727847
 40.364603   70.527847
 40.897627   72.302623
 41.264082   72.271242
 41.264082   72.071242
 43.919056   73.044992
 45.762459   71.090606
 45.762459   70.890606
 41.883424   70.459907
 45.380839   72.430971
 45.172096   72.278409
 45.172096   72.078409
 43.646232   70.731838
 43.646232   70.531838
 40.744113   72.016099
 40.744113   71.816099
 41.938142   72.733370
 44.035143   73.030666
 40.231041   71.800685
 40.231041   71.600685
 39.445157   72.110343
 39.445157   71.910343
 39.948074   72.669164
 39.948074   72.469164
 43.060146   72.013688
 44.764404   71.774507
 44.764404   71.574507
 44.425526   72.301706
 44.425526   72.101706
 41.869952   72.611331
 41.869952   72.411331
 43.673767   71.936769
 45.240394   72.308909
 45.240394   72.108909
 41.336825   71.134068
 41.336825   70.934068
 40.815258   70.534503
 45.329156   71.693214
 45.329156   71.493214
 43.464906   72.292992
 38.329113   71.937311
 38.907145   71.577272
 38.907145   71.377272
 44.211229   71.834472
 44.211229   71.634472
 40.854215   72.457166
 41.035691   72.418300
 41.035691   72.218300
 44.911149   70.718252
 44.911149   70.518252
 40.619652   71.773291
 40.619652   71.573291
 46.104037   71.471899
 46.104037   71.271899
 45.920016   72.641471
 45.920016   72.441471
 38.342061   71.541339
 38.342061   71.341339
 42.121462   72.709953
 42.693523   71.158656
 42.693523   70.958656
 41.410426   71.439497
 41.410426   71.239497
 42.723304   72.051207
 42.723304   71.851207
 44.416731   71.800345
 46.489316   72.229150
 42.367746   71.670601
 42.367746   71.470601
 43.131254   71.721158
 38.583308   72.015156
 38.583308   71.815156
 40.091706   70.953703
 40.091706   70.753703
 38.770271   71.509077
 38.770271   71.309077
 42.146089   71.214037
 41.730802   71.557151
 41.730802   71.357151
 41.028727   70.466962
 40.560892   71.177233
 40.560892   70.977233
 44.051709   71.690946
 44.051709   71.490946
 39.788059   72.747947
 43.839093   71.382235
 45.059724   70.905391
 45.059724   70.705391
 44.367378   72.045142
 44.367378   71.845142
