HD37605
 
Center:  85.007208    6.060581
 
Targets:
 
 84.318398    6.696464
 84.642622    5.251627
 84.900005    6.997020
 85.316610    6.486642
 84.230178    7.138623
 85.209042    5.657081
 85.540946    6.182798
 85.312800    5.704065
 84.590110    6.606403
 85.085406    6.532080
 85.862891    4.982833
 85.630129    5.850123
 84.277462    5.404506
 84.171993    4.898553
 84.908515    7.216894
 84.847923    6.219832
 83.710883    5.780366
 83.885505    6.797204
 86.020842    6.954279
 86.254172    6.528972
 85.507052    4.975323
 85.461288    6.723224
 85.039968    5.559469
 83.712189    6.287730
 85.324321    6.877413
 85.010811    4.763013
 84.400465    5.902995
 83.920251    5.375007
 85.952447    7.028243
 84.661878    5.635821
 86.192355    6.838054
 84.502147    5.391945
 85.999957    5.447060
 85.086903    6.185874
 85.949143    5.429948
 84.231357    6.649358
 83.734974    6.508195
 83.569785    6.420732
 86.468462    6.003965
 86.030409    5.729464
 85.295212    4.906518
 86.216760    5.884668
 84.260099    5.333429
 86.105677    6.161562
 84.097388    5.771777
 86.073260    6.974754
 85.177018    6.784857
 85.608728    5.142492
 84.746709    6.041038
 84.644544    4.982500
 84.176215    5.564571
 86.129348    6.891007
 83.633724    6.441904
 83.551150    5.918718
 85.745161    5.179447
 84.368974    6.607299
 84.908689    6.531986
 84.862463    6.710547
 83.910060    5.542826
 84.738020    4.892083
 86.127842    6.678346
 84.454524    5.674193
 84.517523    7.356822
 85.773146    5.925101
 85.104071    6.591329
 86.159192    6.858969
 85.038961    7.335966
 84.682634    5.709715
 84.496342    6.693805
 85.646201    5.449173
 83.844824    5.937933
 84.411285    6.972064
 85.050561    7.510120
 84.653279    6.885180
 84.234451    5.633623
 84.299542    5.296077
 84.451525    7.342351
 85.089151    6.424086
 85.006250    6.703827
 84.830062    4.867889
 85.028193    6.974638
 84.714921    5.634654
 83.961938    6.634283
 86.048828    6.561336
 85.946318    7.192857
 85.341350    4.808147
 85.368377    4.996743
 83.727470    5.484615
 83.967721    5.732129
 85.385128    6.948081
 85.977791    5.747048
 85.325594    6.922568
 86.479160    5.891012
 83.716734    6.819006
 85.411942    7.030539
 84.483371    6.312083
 84.034232    6.411943
 85.224961    7.244374
 84.525162    5.107108
 84.217651    4.929030
 85.945340    6.470291
 85.417558    7.202940
 86.054442    6.457361
 84.732517    7.390127
 84.363897    6.854747
 84.019711    5.277394
 84.151177    6.606282
 84.422211    4.758196
 84.477468    7.009799
 84.864829    6.598838
 84.103831    5.133142
 85.245298    7.025949
 84.753286    5.666257
 84.700361    4.629497
 83.937996    6.214974
 85.576742    5.031136
 85.223431    4.839310
 85.568083    7.168379
 84.554957    6.078080
 83.670049    5.483830
 85.981227    6.658023
 84.710796    5.815733
 84.135022    5.181967
 85.206233    4.754500
 84.143446    6.209935
 84.059192    7.200051
 85.744760    5.994810
 85.731563    4.848537
 83.802628    6.711218
 83.905075    5.583179
 83.606633    5.887731
 85.989775    6.867874
 85.326949    5.393390
 85.591675    6.862954
 84.687154    6.650112
 83.818681    6.587702
 84.606465    5.257726
 83.661120    6.706071
 84.018155    5.584662
 83.739222    5.300216
 84.261876    5.846505
 84.330804    7.034847
 84.880274    5.417014
 85.808408    6.273983
 84.908621    4.776773
 85.104486    6.022959
 85.210517    5.338586
 84.408823    6.893625
 84.207778    5.872749
 83.932325    5.239617
 84.588345    5.437710
 84.478930    5.602595
 85.885459    7.077513
 85.116092    5.108309
 84.625809    7.189313
 84.735563    6.400038
 84.018707    5.774272
 83.901635    5.817283
 84.374826    6.302264
 83.953429    6.341667
 83.591825    5.965152
 84.953927    6.481860
 86.262859    5.983855
 84.414500    5.603916
 
Guide Stars:
 
 85.097614    5.931812
 84.990050    5.897902
 85.194859    6.057850
 84.818192    6.005442
 85.165865    5.860989
 85.312017    5.949439
 84.748784    5.859056
 85.027842    5.708181
 85.179175    5.751739
 84.650895    5.953817
 84.988479    5.678288
 85.153999    6.463165
 84.976631    5.614589
 84.982392    6.511523
 85.313245    6.426475
 85.283303    6.450803
 85.025512    6.544525
 85.484309    5.908909
 85.240756    6.510456
 85.171192    6.540378
 85.383825    5.718825
 85.520359    5.977256
 84.744753    5.612439
 84.801225    5.581675
 85.530925    5.913625
 85.559972    6.085755
 85.570439    6.205103
 85.037550    6.656606
 84.657359    5.555437
 84.533739    5.651406
 84.936275    6.698300
 85.150029    6.686831
 85.256981    6.675962
 85.591523    5.736962
 84.559067    6.555428
 84.533417    5.525756
 84.555330    5.490232
 84.860306    5.314353
 85.340950    6.755336
 85.390381    6.770922
 85.336550    5.320998
 85.124084    6.864837
 84.941849    5.249392
 85.409678    5.331287
 84.415188    5.465840
 85.751842    5.578084
 85.095410    6.961484
 85.878945    5.749348
 85.436759    5.234739
 84.269483    6.633276
 84.399773    5.348034
 85.577270    5.309142
 85.519364    5.256987
 84.820589    5.107394
 84.044622    5.867194
 84.027530    6.159699
 85.645451    5.175584
 85.249225    4.988393
 85.135503    4.968853
 84.965464    4.943559
 85.444348    7.095462
 85.659384    5.118439
 85.921778    5.356062
 85.891498    5.268884
 85.937466    5.315511
 83.798577    6.301276
 84.544353    4.922909
 85.066412    4.818673
 83.732308    5.930827
 83.737624    5.875713
 85.759695    5.016462
 86.229568    6.482265
 85.918064    5.147150
 84.377212    4.936570
 85.694331    7.157148
 84.069937    5.163223
 85.452040    4.844049
 86.059484    6.826320
 85.345289    7.317592
 86.072986    5.283796
 85.555173    7.283084
 83.713559    6.458083
 84.991678    4.709766
 84.285026    7.219880
 84.922037    4.683578
 85.749573    4.887676
 86.374430    6.476644
 84.123542    7.190634
 84.907687    4.631550
 85.670553    7.351948
 
Reddening Standards:
 
 84.935209    5.343511
 83.961118    5.817172
 85.470508    5.163276
 84.979427    6.404907
 84.797732    7.449314
 85.112692    6.775320
 84.827894    6.428286
 85.828098    5.220615
 85.907239    5.841068
 85.060070    7.184342
 84.513476    5.003482
 84.597835    5.497082
 85.471761    5.531199
 85.467299    6.573050
 
Spectrophotometric Standards:
 
 84.986057    5.769836
 84.872791    5.713640
 84.518282    6.107490
 84.525601    5.854239
 85.000919    5.492927
 85.684699    6.013317
 84.539815    6.596553
 84.642083    5.430616
 84.467845    5.556346
 85.529489    6.590062
 85.473666    6.800880
 85.055037    7.010014
 84.489670    6.882554
 85.430577    5.180467
 85.988866    6.057803
 84.116743    5.611849
 85.978984    5.795040
 85.196165    5.052600
 84.607095    5.104020
 85.888856    6.621035
 85.440367    5.084011
 84.094906    6.641194
 84.495984    5.062494
 84.392683    5.111962
 83.839569    6.065211
 84.585047    4.963810
 83.875710    6.402714
 84.683455    4.924657
 83.853994    6.356113
 83.961938    6.634283
 84.102739    5.285054
 84.456636    4.996699
 84.345772    5.009760
 84.011829    6.827156
 83.924388    5.421543
 83.876201    6.654900
 85.823842    7.059580
 84.140848    7.030784
 85.160439    7.348570
 83.712247    6.324873
 83.998205    6.964146
 85.579865    4.835451
 85.906908    5.038247
 86.223164    6.712827
 86.246117    6.748268
 86.443983    6.031704
 83.626093    5.610515
 85.103086    7.506173
 
Sky fibers:
 
 84.318398    6.796464
 84.318398    6.596464
 84.642622    5.351627
 84.642622    5.151627
 85.316610    6.586642
 85.316610    6.386642
 85.312800    5.804065
 85.312800    5.604065
 84.590110    6.706403
 84.590110    6.506403
 85.862891    5.082833
 85.630129    5.950123
 85.630129    5.750123
 84.171993    4.998553
 84.908515    7.316894
 84.908515    7.116894
 84.847923    6.319832
 84.847923    6.119832
 83.885505    6.897204
 83.885505    6.697204
 86.254172    6.628972
 86.254172    6.428972
 85.507052    5.075323
 85.507052    4.875323
 85.039968    5.659469
 85.039968    5.459469
 85.010811    4.863013
 85.010811    4.663013
 84.400465    6.002995
 84.400465    5.802995
 85.999957    5.547060
 85.999957    5.347060
 85.086903    6.285874
 85.086903    6.085874
 84.231357    6.749358
 84.231357    6.549358
 86.030409    5.829464
 86.030409    5.629464
 85.295212    5.006518
 85.295212    4.806518
 86.216760    5.984668
 86.105677    6.261562
 86.105677    6.061562
 84.097388    5.671777
 84.746709    6.141038
 84.746709    5.941038
 84.644544    5.082500
 84.644544    4.882500
 84.176215    5.664571
 84.176215    5.464571
 85.745161    5.279447
 85.745161    5.079447
 84.368974    6.707299
 84.368974    6.507299
 84.908689    6.631986
 84.908689    6.431986
 84.738020    4.992083
 86.127842    6.778346
 86.127842    6.578346
 85.773146    6.025101
 85.773146    5.825101
 85.038961    7.435966
 85.038961    7.235966
 84.496342    6.793805
 84.496342    6.593805
 85.646201    5.549173
 85.646201    5.349173
 84.653279    6.985180
 84.653279    6.785180
 85.006250    6.803827
 84.830062    4.967889
 84.830062    4.767889
 85.028193    7.074638
 85.028193    6.874638
 83.961938    6.534283
 83.727470    5.584615
 83.727470    5.384615
 85.977791    5.647048
 85.325594    7.022568
 85.325594    6.822568
 84.483371    6.412083
 84.483371    6.212083
 84.034232    6.511943
 84.034232    6.311943
 85.224961    7.344374
 85.224961    7.144374
 84.525162    5.207108
 84.217651    5.029030
 84.217651    4.829030
 85.945340    6.570291
 85.945340    6.370291
 84.363897    6.754747
 84.019711    5.177394
 84.151177    6.706282
 84.151177    6.506282
 84.422211    4.858196
 84.103831    5.233142
 84.103831    5.033142
 84.753286    5.766257
 84.753286    5.566257
 84.700361    4.729497
 84.554957    6.178080
 84.554957    5.978080
 84.143446    6.309935
 84.143446    6.109935
 85.744760    5.894810
 85.731563    4.948537
 83.905075    5.683179
 83.905075    5.483179
 85.591675    6.962954
 85.591675    6.762954
 84.687154    6.750112
 84.687154    6.550112
 84.018155    5.684662
 84.018155    5.484662
 84.330804    7.134847
 84.330804    6.934847
 85.808408    6.373983
 85.808408    6.173983
 85.210517    5.438586
 84.207778    5.972749
 84.207778    5.772749
 83.932325    5.339617
 83.932325    5.139617
 84.478930    5.702595
 85.116092    5.208309
 85.116092    5.008309
 84.625809    7.289313
 84.625809    7.089313
 84.735563    6.300038
 84.374826    6.402264
 86.262859    6.083855
 86.262859    5.883855
 84.414500    5.503916
