HD43691
 
Center:  94.894487   41.092306
 
Targets:
 
 94.568350   42.292883
 94.403847   42.427796
 93.689112   40.811259
 95.791912   41.394492
 96.250132   40.207640
 95.935019   41.385039
 93.605022   40.256099
 94.168728   41.002279
 94.248940   41.053202
 93.492170   41.392954
 96.264717   42.006951
 94.532496   42.543912
 96.853520   41.200728
 94.221416   40.605738
 93.614023   40.949500
 93.235465   40.867714
 94.375914   39.941002
 95.818308   39.906195
 96.762202   40.683115
 95.459389   40.753534
 95.450524   41.991794
 96.148307   40.645465
 93.764721   41.520481
 96.092061   40.675734
 94.978662   40.570040
 93.667751   41.193614
 95.822269   40.925418
 95.701941   41.235948
 95.292527   40.579023
 94.563229   41.163008
 95.192252   41.369937
 94.404823   40.196370
 94.725724   41.500754
 93.857685   40.730683
 95.581563   41.734390
 95.694281   42.319491
 94.435669   41.429047
 93.847744   40.260290
 96.214884   41.868641
 93.476612   41.200612
 95.014801   41.191262
 93.280079   41.307692
 94.759666   40.193379
 94.140088   42.294827
 94.761776   42.439823
 94.834949   40.778087
 93.137106   41.631709
 93.512737   40.058548
 93.954489   41.890585
 94.955760   42.420683
 95.872105   41.897685
 95.716737   42.130927
 94.150765   41.668749
 95.776768   40.993921
 93.887546   40.843905
 96.449538   41.216125
 96.143921   41.365892
 93.176987   40.921403
 96.409669   41.328251
 95.892607   40.175868
 93.656538   40.276959
 95.170602   42.242775
 94.464897   39.678457
 93.969768   41.421986
 96.743463   41.108940
 93.948098   40.351495
 93.894565   40.218096
 93.181640   40.504966
 95.840224   39.988267
 95.077393   40.573804
 95.696429   40.965023
 92.947420   40.897666
 95.396481   41.993605
 95.235284   41.990254
 94.633548   41.639071
 94.924682   40.922967
 95.934134   42.105497
 93.777305   40.462450
 96.263342   40.037437
 95.996343   42.200710
 94.376852   41.594801
 95.219712   41.168432
 93.201121   41.788004
 94.776492   40.323052
 95.612327   40.051812
 93.206691   41.575986
 94.755639   40.533019
 94.928343   42.480368
 94.338441   40.343415
 95.244149   39.913342
 94.796596   39.905535
 96.055832   40.085610
 93.052118   41.265925
 94.456741   41.634735
 96.165730   41.706494
 93.963768   40.880737
 94.883871   39.610898
 95.299911   42.218033
 96.805588   41.208244
 94.338419   41.284629
 93.696206   40.474833
 95.249522   42.289747
 95.394008   40.777713
 93.173534   41.021450
 96.136893   41.447628
 93.631422   41.338840
 94.069367   42.355228
 94.219513   41.212863
 94.898539   40.359662
 94.918480   41.995501
 95.470090   40.338138
 94.939194   40.750936
 95.170945   41.303603
 93.229072   41.502025
 93.306084   40.339411
 94.338420   42.415294
 95.193883   40.604631
 95.335227   40.960057
 94.116011   40.839228
 94.633828   42.327337
 94.921842   39.691306
 94.407687   40.455825
 95.201726   41.896220
 94.512654   40.238987
 96.485020   41.912735
 95.396102   40.096035
 94.176384   41.376906
 95.855108   41.755846
 96.768203   40.982473
 95.358926   40.254012
 95.044846   40.438809
 93.816671   41.348975
 95.422121   41.813810
 96.315774   41.680419
 94.064676   41.819969
 95.949201   41.563378
 93.661804   39.971224
 95.738843   41.974240
 94.565013   41.904026
 94.241266   41.786797
 95.822642   40.132458
 93.650576   40.403077
 93.381422   41.762614
 93.516950   41.252753
 95.532824   40.478294
 95.080196   39.755340
 95.027437   40.863603
 94.256690   42.306231
 95.636879   41.680272
 94.952063   41.896629
 94.705741   41.282223
 92.980044   41.347728
 93.982144   39.901422
 94.924429   40.587841
 94.519243   39.967762
 94.654645   41.873263
 93.253882   41.904592
 93.680528   40.139183
 93.944278   41.658967
 94.159348   42.191427
 93.712252   40.325817
 96.424621   40.430927
 93.794888   40.770385
 95.443420   40.059161
 95.974291   40.460329
 94.092988   40.573853
 94.179595   39.959621
 93.517185   41.869530
 96.355607   41.558443
 93.469132   40.508406
 93.945524   42.184071
 96.164639   42.193475
 95.456623   40.160049
 94.960614   39.862737
 94.437091   41.791938
 96.134273   42.008723
 93.561180   41.627606
 95.386033   40.700969
 95.744713   41.146105
 95.452920   39.977349
 94.715614   41.716672
 96.303914   40.236109
 93.368983   41.863234
 93.656279   41.895439
 95.195086   39.628198
 95.950401   39.849158
 94.619159   42.002303
 95.277171   40.653931
 95.264634   40.002637
 96.073494   40.289386
 95.051449   42.225970
 94.462567   41.949614
 94.225214   42.033053
 95.620487   41.799772
 94.243405   41.627129
 96.131259   40.975919
 
Guide Stars:
 
 94.923649   41.062424
 94.939864   41.203234
 94.529012   40.939887
 94.559489   41.424134
 94.481126   41.381907
 95.075722   40.662501
 95.393934   40.828364
 95.547287   41.183338
 94.819673   40.592506
 95.301809   41.495848
 95.200189   41.545389
 94.729193   40.587740
 94.668742   40.580384
 95.612869   41.041760
 94.864117   41.636606
 95.538687   41.362896
 95.288852   41.569905
 94.227139   41.345960
 94.966492   40.499370
 94.114998   41.252278
 94.068119   41.033468
 95.563670   40.722123
 94.467537   40.528628
 94.623780   41.709839
 95.186667   41.707450
 95.669523   40.796645
 94.060989   41.284789
 94.660673   40.459667
 95.092034   40.448562
 95.422284   40.559106
 95.804287   41.116739
 95.594470   40.611656
 95.227903   40.371942
 95.919609   41.155034
 95.340012   40.344003
 95.730741   41.640775
 94.577203   40.223992
 94.798789   40.166464
 95.416637   40.252100
 95.139814   42.035362
 95.895584   40.494805
 93.629269   40.875184
 95.408686   40.174396
 94.466367   42.039839
 95.354845   40.154964
 94.208812   40.218606
 94.173892   41.959842
 94.946724   40.037927
 95.025070   40.018006
 94.715339   40.021437
 95.888390   40.297949
 95.296081   39.975781
 96.472645   40.912770
 93.360216   40.710219
 96.430592   41.526517
 96.413164   40.592822
 93.796431   42.039003
 93.273542   40.817220
 94.101417   39.991070
 93.699927   40.189837
 93.455720   41.797537
 96.576614   41.338920
 93.473400   41.836294
 94.428848   42.344928
 94.791772   39.790872
 96.044360   42.084973
 93.198884   41.432978
 95.237673   42.390503
 93.174739   40.836573
 96.479037   40.523430
 95.382731   42.376709
 94.854162   39.754409
 93.132278   41.279928
 94.417998   39.796748
 93.488353   40.254842
 95.732261   42.295514
 96.683625   41.355536
 96.628325   40.668292
 96.568762   40.535858
 93.254586   41.732276
 96.150114   42.123742
 96.669537   41.525612
 93.070780   41.391697
 93.151745   40.605782
 93.888009   39.899687
 96.581675   40.476095
 96.643539   40.566765
 93.100640   40.634302
 94.355935   42.467250
 95.996728   39.929595
 96.103497   39.990031
 93.450939   40.163944
 96.522995   40.356951
 93.016531   41.420378
 
Reddening Standards:
 
 94.899398   39.818170
 94.592203   42.346327
 93.823438   42.142588
 94.377995   39.824277
 95.214681   40.300375
 93.951518   42.031359
 94.400874   41.193352
 96.322017   40.867145
 95.951414   40.227514
 94.921355   40.883266
 94.243487   40.496268
 94.724448   40.504940
 94.862541   42.307792
 94.472477   42.085279
 
Spectrophotometric Standards:
 
 94.883124   41.181938
 95.064880   41.193049
 94.949692   41.268196
 95.256966   41.106785
 94.722900   40.843808
 95.207012   40.848380
 94.722904   41.442384
 94.758329   40.722522
 95.253427   40.772854
 95.475431   40.921224
 94.259368   41.150029
 95.292328   40.714073
 95.277171   40.653931
 94.983185   41.656693
 94.117120   41.031455
 95.654930   41.330914
 94.997166   41.740919
 94.100206   40.769247
 95.272356   41.723806
 94.525324   40.449758
 94.023611   41.371523
 94.562406   41.777247
 95.039659   41.813054
 94.901667   41.824502
 95.113343   40.369206
 94.239625   40.534380
 94.160117   41.622582
 95.172433   41.929979
 94.090982   41.777501
 93.977147   40.496447
 96.152910   41.267808
 93.640824   40.812026
 93.700031   41.585380
 95.567672   40.192866
 96.266621   41.009334
 96.203592   41.435785
 94.598282   42.141381
 96.274355   40.834352
 96.022337   40.439309
 96.156761   41.612049
 95.809800   41.940229
 96.285548   40.685643
 94.300896   42.151723
 93.371172   41.196354
 96.332605   40.698492
 94.410517   39.975513
 94.305693   42.207050
 95.068578   39.890783
 94.308729   42.243455
 93.905962   40.112659
 96.314263   40.432767
 94.333814   42.296109
 95.022266   42.384294
 93.849609   40.066326
 95.279402   39.800840
 96.411089   41.791135
 95.434101   39.814747
 95.027797   39.747138
 93.976537   39.857346
 
Sky fibers:
 
 94.568350   42.392883
 94.568350   42.192883
 93.689112   40.911259
 93.689112   40.711259
 95.791912   41.494492
 95.791912   41.294492
 96.250132   40.107640
 93.605022   40.356099
 93.605022   40.156099
 94.168728   41.102279
 93.235465   40.967714
 93.235465   40.767714
 95.459389   40.853534
 95.459389   40.653534
 96.148307   40.745465
 96.148307   40.545465
 93.764721   41.620481
 93.764721   41.420481
 96.092061   40.775734
 96.092061   40.575734
 93.667751   41.293614
 93.667751   41.093614
 95.822269   41.025418
 95.822269   40.825418
 94.563229   41.063008
 94.404823   40.296370
 94.404823   40.096370
 95.581563   41.834390
 95.581563   41.634390
 94.435669   41.329047
 93.847744   40.360290
 93.847744   40.160290
 96.214884   41.968641
 96.214884   41.768641
 95.014801   41.291262
 95.014801   41.091262
 93.280079   41.407692
 93.280079   41.207692
 94.834949   40.678087
 95.872105   41.997685
 95.716737   42.230927
 95.716737   42.030927
 94.150765   41.768749
 94.150765   41.568749
 95.170602   42.342775
 95.170602   42.142775
 94.464897   39.778457
 93.969768   41.521986
 93.969768   41.321986
 93.948098   40.451495
 93.948098   40.251495
 95.696429   41.065023
 95.696429   40.865023
 95.396481   42.093605
 95.396481   41.893605
 95.235284   42.090254
 95.934134   42.205497
 95.934134   42.005497
 93.777305   40.562450
 93.777305   40.362450
 94.376852   41.494801
 95.219712   41.268432
 95.219712   41.068432
 95.612327   40.151812
 95.612327   39.951812
 94.338441   40.443415
 94.338441   40.243415
 93.963768   40.980737
 93.963768   40.780737
 95.299911   42.318033
 95.299911   42.118033
 94.338419   41.184629
 93.631422   41.438840
 93.631422   41.238840
 94.898539   40.459662
 94.898539   40.259662
 95.170945   41.403603
 95.170945   41.203603
 93.306084   40.439411
 93.306084   40.239411
 95.193883   40.704631
 95.335227   41.060057
 95.335227   40.860057
 94.633828   42.427337
 94.633828   42.227337
 94.407687   40.355825
 94.512654   40.338987
 94.512654   40.138987
 94.176384   41.276906
 95.044846   40.538809
 93.816671   41.448975
 93.816671   41.248975
 96.315774   41.580419
 94.064676   41.919969
 94.064676   41.719969
 95.738843   42.074240
 94.241266   41.886797
 94.241266   41.686797
 95.822642   40.232458
 95.822642   40.032458
 93.516950   41.352753
 93.516950   41.152753
 95.532824   40.578294
 95.532824   40.378294
 95.080196   39.855340
 95.080196   39.655340
 95.027437   40.763603
 94.256690   42.206231
 94.705741   41.182223
 93.982144   40.001422
 93.982144   39.801422
 94.519243   40.067762
 94.519243   39.867762
 94.654645   41.973263
 94.654645   41.773263
 93.712252   40.425817
 93.712252   40.225817
 96.424621   40.530927
 96.424621   40.330927
 93.794888   40.870385
 93.794888   40.670385
 95.974291   40.560329
 95.974291   40.360329
 94.092988   40.673853
 94.092988   40.473853
 94.179595   40.059621
 94.179595   39.859621
 93.517185   41.969530
 93.517185   41.769530
 96.355607   41.658443
 96.355607   41.458443
 93.469132   40.408406
 93.945524   42.284071
 94.960614   39.962737
 94.960614   39.762737
 94.437091   41.891938
 94.437091   41.691938
 93.561180   41.727606
 93.561180   41.527606
 94.715614   41.816672
 94.715614   41.616672
 96.303914   40.336109
 96.303914   40.136109
 93.656279   41.995439
 93.656279   41.795439
 95.195086   39.728198
 94.619159   42.102303
 94.619159   41.902303
 95.051449   42.325970
 94.225214   42.133053
 94.225214   41.933053
 94.243405   41.727129
 94.243405   41.527129
 96.131259   41.075919
 96.131259   40.875919
