HD49674
 
Center: 102.877150   40.867756
 
Targets:
 
103.025546   41.913309
101.191623   40.179983
102.275276   39.689538
102.417100   40.296032
103.679805   41.712225
102.094244   40.691271
104.015577   41.551112
103.443843   41.085418
103.352089   40.183339
102.830199   39.481992
104.513284   40.109644
102.861541   41.766196
101.438406   41.525529
102.450382   40.492979
104.433696   40.437037
103.935213   40.832848
103.617719   40.136855
102.430621   41.671364
103.692129   40.858076
101.939632   41.219624
103.368720   41.257514
102.797678   40.496380
102.917082   41.390965
103.046999   39.711613
102.887793   41.616214
104.128279   39.739668
102.323031   41.454996
102.434983   40.435923
101.756629   40.084943
103.774878   39.752875
102.409037   41.296239
104.150115   41.091357
101.103948   40.943403
102.831307   41.730721
103.717903   39.573167
102.832361   40.301989
102.300769   40.873268
102.137245   41.953222
104.110746   40.583138
101.694813   41.786494
101.802264   40.014383
102.048376   42.222298
101.378298   41.653007
102.581568   40.222680
101.340197   40.004510
102.177866   40.841864
103.111092   41.529995
103.501169   42.105889
101.792897   40.978801
102.608849   39.517474
103.919446   40.293278
103.508485   39.907984
104.366468   40.794912
102.066132   41.095710
104.821653   40.953853
102.650848   41.126057
101.359148   41.514918
103.794745   40.338948
104.183865   39.773253
102.835807   39.901589
102.958199   39.659302
101.731038   40.656418
102.348830   40.718612
101.228017   40.260241
104.486520   40.643483
102.563008   41.375776
103.216532   41.283181
101.630079   42.010515
103.157526   40.867068
103.021109   39.663493
102.649755   40.373258
102.474519   39.953541
104.235220   40.190747
101.411730   40.774653
104.363728   41.337329
103.673437   40.475799
101.731685   41.272198
103.796326   40.070373
103.086566   40.798712
104.025239   41.359638
103.598013   40.607098
104.056896   39.704818
103.216188   39.887045
100.982975   41.138418
102.117123   41.495043
102.068538   41.716736
103.628868   41.334590
101.949733   40.356256
101.434913   40.005005
102.221751   40.165464
103.219842   41.084988
101.188260   40.354503
104.266751   41.914120
103.342313   40.676982
101.603823   41.942174
103.722924   39.732703
103.326987   41.594669
101.400082   41.240532
104.297177   40.779373
103.479756   39.748116
102.178193   41.735351
102.520140   41.065809
102.634753   39.605832
103.802680   42.128702
101.136373   41.211313
102.471759   39.785855
104.310364   41.883600
103.594871   39.500215
101.665588   41.063468
101.410830   40.253939
102.865028   41.028246
103.571483   40.324231
102.274753   41.339897
101.633907   40.272409
102.691766   39.859446
101.084071   41.234561
103.880803   39.661583
104.118664   40.047213
102.802766   39.761046
101.900975   40.750876
104.062593   41.320419
102.157850   39.590117
103.480867   39.607447
101.033739   41.417202
102.607331   42.111784
101.042864   40.978124
101.804322   39.781270
101.885509   41.781244
102.887634   41.999908
104.696323   40.586764
103.664639   39.706468
101.959559   39.889204
103.562299   39.631115
102.464465   40.163454
102.412235   39.538028
101.315334   41.619119
102.910318   39.580637
102.191836   39.936154
104.326492   40.532927
102.268779   39.546319
101.214038   40.296694
104.127591   40.775045
103.271242   39.436873
103.416042   39.523524
102.976139   39.912962
 
Guide Stars:
 
102.725784   40.898381
102.815153   41.009406
102.831676   40.704316
102.986035   40.671355
102.978320   40.611750
103.163704   41.166589
102.539603   40.566370
102.340521   41.037554
103.396298   40.661375
103.448706   40.742678
102.299391   41.062683
102.715199   40.395473
102.648545   41.331412
103.439806   40.553084
103.595677   40.846139
102.263452   40.575147
102.358395   40.467162
103.617435   40.725826
102.350253   41.297406
102.946514   41.452395
102.719367   40.281081
103.485892   40.456081
102.771154   41.495662
103.740048   40.613500
103.185641   40.202718
102.451703   41.501062
101.960412   40.693392
102.767537   41.580625
102.280534   40.285839
103.803206   40.622662
102.220962   41.425583
102.003500   41.249812
103.159259   40.107850
101.877642   41.106619
103.936242   40.775256
103.221417   40.100423
103.960317   40.894009
104.009514   41.059567
103.954270   41.211964
104.079185   40.702508
101.658377   40.763123
104.099751   41.178935
101.934700   41.619581
102.375387   39.899326
101.694414   40.337473
101.693403   41.409481
103.236651   39.836061
103.679125   41.768820
102.159762   39.876000
104.343873   40.609520
102.637725   39.724770
104.390537   41.054139
102.061570   39.876965
101.846145   41.746645
104.431183   40.719749
103.953339   41.742898
101.326314   41.102781
103.927927   41.779333
104.309312   40.336134
104.146936   40.123407
101.449858   41.463382
104.493973   41.001014
102.496408   42.095235
101.206478   40.869209
101.816437   39.891787
102.898953   42.137467
103.795287   39.799112
104.566934   40.641645
101.205720   40.504149
104.243006   40.045556
101.453230   41.649255
102.700909   39.548450
101.692600   41.865142
102.772706   39.531584
101.451534   41.689398
101.284623   40.261589
101.086400   40.882293
101.154585   41.264935
104.680857   40.851049
101.145039   40.469592
102.959978   42.252581
101.047138   40.779893
103.047548   39.486262
101.303631   40.155785
101.030842   40.931095
101.913347   42.067352
101.848134   39.703398
103.173489   42.255034
103.953287   42.021184
104.530769   41.528505
104.652789   41.322198
103.265159   39.485762
103.388549   42.231380
104.751978   41.109039
104.244395   41.878175
103.364165   42.266884
103.462528   42.245628
 
Reddening Standards:
 
103.296925   41.083991
102.657685   41.735776
101.747057   40.352429
103.005901   40.075603
101.665179   41.004829
102.146571   41.704638
102.119778   42.184229
102.550330   41.957381
101.874693   39.765336
103.124446   41.144978
102.934975   40.344788
102.732101   41.082583
101.689885   41.339443
102.788350   39.639861
102.453545   42.176076
103.907959   41.612633
103.779458   39.938154
 
Spectrophotometric Standards:
 
102.685585   40.689162
102.751162   41.169654
102.954041   41.207619
102.270187   40.675535
102.449567   41.262552
102.129128   40.959552
102.115981   40.871559
102.146209   40.699120
103.234142   41.391720
102.287682   40.425720
102.000875   40.950486
102.064106   40.600868
102.151957   41.265770
103.386204   41.513398
103.724169   40.476257
101.839514   40.858437
103.737165   40.367498
104.009502   40.681669
103.179235   40.019226
103.736512   41.492005
104.131942   40.992714
102.785082   39.901744
101.703879   40.406616
101.777495   41.493535
103.092684   41.908993
104.279618   40.581632
101.633907   40.272409
101.539576   41.373607
104.301597   41.218251
104.009238   40.125485
101.725724   41.657829
102.005743   41.850302
101.418569   41.368055
103.162272   39.651438
102.328795   42.045432
101.855886   41.857966
101.308371   41.317756
101.567806   41.742413
101.954754   42.019796
104.517073   41.473661
102.174176   42.158247
102.658570   39.459950
103.144870   39.463811
 
Sky fibers:
 
103.025546   41.813309
102.275276   39.789538
102.275276   39.589538
103.679805   41.612225
104.015577   41.651112
104.015577   41.451112
103.443843   41.185418
103.443843   40.985418
103.352089   40.283339
103.352089   40.083339
102.861541   41.866196
102.861541   41.666196
104.433696   40.537037
103.935213   40.932848
103.935213   40.732848
103.617719   40.236855
103.617719   40.036855
102.430621   41.771364
102.430621   41.571364
103.692129   40.958076
103.692129   40.758076
101.939632   41.319624
101.939632   41.119624
103.368720   41.357514
103.368720   41.157514
103.046999   39.811613
103.046999   39.611613
102.323031   41.554996
102.323031   41.354996
102.434983   40.535923
102.434983   40.335923
101.756629   40.184943
101.756629   39.984943
103.774878   39.852875
103.774878   39.652875
102.409037   41.396239
102.409037   41.196239
101.103948   41.043403
101.103948   40.843403
102.831307   41.830721
102.831307   41.630721
103.717903   39.673167
102.832361   40.401989
102.832361   40.201989
102.300769   40.973268
102.300769   40.773268
102.581568   40.322680
102.581568   40.122680
103.111092   41.429995
101.792897   41.078801
101.792897   40.878801
103.919446   40.393278
103.508485   40.007984
103.508485   39.807984
104.366468   40.894912
104.366468   40.694912
102.066132   41.195710
102.066132   40.995710
102.650848   41.226057
102.650848   41.026057
103.794745   40.438948
103.794745   40.238948
102.835807   40.001589
102.835807   39.801589
102.958199   39.559302
101.731038   40.756418
101.731038   40.556418
102.348830   40.818612
104.486520   40.743483
104.486520   40.543483
102.563008   41.475776
102.563008   41.275776
103.157526   40.967068
103.157526   40.767068
103.021109   39.763493
103.021109   39.563493
102.649755   40.473258
102.649755   40.273258
104.235220   40.290747
104.235220   40.090747
101.411730   40.874653
101.411730   40.674653
104.363728   41.237329
103.673437   40.575799
103.673437   40.375799
101.731685   41.372198
101.731685   41.172198
103.086566   40.898712
103.086566   40.698712
104.056896   39.804818
103.216188   39.987045
103.216188   39.787045
102.117123   41.595043
102.068538   41.816736
102.068538   41.616736
103.628868   41.434590
101.949733   40.456256
101.949733   40.256256
101.434913   40.105005
101.434913   39.905005
102.221751   40.265464
102.221751   40.065464
103.342313   40.776982
103.342313   40.576982
103.722924   39.832703
103.722924   39.632703
103.326987   41.694669
103.326987   41.494669
104.297177   40.679373
103.479756   39.848116
103.479756   39.648116
102.520140   41.165809
102.520140   40.965809
101.136373   41.111313
103.594871   39.600215
101.665588   41.163468
101.665588   40.963468
101.410830   40.353939
101.410830   40.153939
102.865028   41.128246
102.865028   40.928246
103.571483   40.424231
102.274753   41.439897
102.274753   41.239897
101.633907   40.372409
101.633907   40.172409
102.691766   39.759446
103.880803   39.761583
101.900975   40.850876
101.900975   40.650876
104.062593   41.420419
102.157850   39.690117
102.157850   39.490117
103.480867   39.707447
103.480867   39.507447
102.607331   42.011784
102.887634   42.099908
102.887634   41.899908
103.664639   39.806468
103.664639   39.606468
101.959559   39.789204
102.412235   39.638028
102.412235   39.438028
102.910318   39.680637
102.910318   39.480637
102.191836   40.036154
102.191836   39.836154
102.268779   39.646319
103.271242   39.536873
103.416042   39.623524
102.976139   40.012962
102.976139   39.812962
