HD68988
 
Center: 124.592388   61.460572
 
Targets:
 
122.309578   62.039677
123.573449   60.848879
126.924817   60.784293
121.926873   60.924925
126.612432   60.636611
126.945347   61.184318
121.805908   61.102616
124.405795   60.038874
124.212854   61.389452
124.788390   62.344006
123.001837   62.026825
124.959909   61.334833
123.597990   60.061657
124.856012   62.890916
124.554208   60.840079
124.116299   61.266078
123.476192   61.567717
123.224377   61.625908
125.280609   61.553271
123.580832   60.332191
125.194122   62.636322
125.007270   60.640756
122.694663   60.407205
124.655537   60.797062
123.838627   62.874533
123.416586   62.764808
123.282955   60.546608
124.320784   62.473516
122.389517   61.570830
126.141942   60.725527
125.511573   60.739585
125.515545   60.935304
123.151557   60.939769
123.786279   60.572998
125.570256   61.624029
126.011093   60.618963
124.100458   60.631984
125.379830   61.831603
126.224349   62.459725
126.565333   60.744499
123.990136   61.637073
125.682970   61.714193
124.168635   62.005900
124.547542   60.930863
123.740066   60.535623
125.733930   61.263544
126.607138   61.420849
127.435263   61.242209
125.579063   61.478879
124.812411   61.985412
127.457639   62.027761
124.915549   60.660865
121.891798   62.050099
124.732526   61.457207
124.294748   60.215108
121.592806   61.803039
125.878687   62.515663
127.458328   61.346179
125.160664   61.781106
125.206161   60.628770
122.616713   61.629955
122.383573   61.864576
124.785891   61.155797
124.912047   61.608269
125.621534   62.412668
126.357753   62.547510
124.073199   60.914372
125.033734   62.097035
126.505812   61.252947
124.092251   60.724381
125.900964   61.684522
123.472233   60.882015
125.509690   61.790199
122.624166   61.463127
124.029340   61.109341
126.835396   60.912249
125.681868   62.567583
124.790834   60.912174
127.022427   60.705079
123.961131   60.990831
124.248365   60.825214
124.409435   60.632438
125.021406   62.238927
123.398540   60.219509
126.279916   62.603337
123.062397   61.387816
121.924974   61.133843
122.975324   60.731954
122.352939   61.020811
125.074987   61.405625
125.103370   62.026888
126.193304   60.932287
125.262597   61.063296
123.741040   60.662573
121.838010   60.849979
124.702722   61.166661
127.476715   61.535517
122.298919   62.225882
125.904667   62.720269
123.081239   61.422707
124.627083   62.921421
123.962802   62.156805
123.831041   61.066715
126.900393   61.435283
123.118847   60.989527
123.825145   62.025209
123.226565   60.777242
124.723304   61.414154
123.818360   61.293770
123.099425   61.156178
124.340771   61.654810
126.651527   62.538010
126.969621   61.315913
 
Guide Stars:
 
124.621492   61.512802
124.364313   61.567523
124.155888   61.486541
125.075623   61.662189
124.574337   61.767931
125.128373   61.269121
123.956978   61.299428
123.783224   61.498094
124.686887   60.985806
125.139056   61.056034
123.485537   61.282709
125.848383   61.654311
123.227468   61.329635
125.991334   61.572070
123.548519   60.977419
124.808872   62.180530
123.837086   60.831208
123.317131   61.066600
124.438795   62.187787
123.251589   61.838912
126.013220   61.105500
123.237606   61.015667
125.982249   61.935207
125.289239   60.711637
122.938089   61.233495
126.149348   61.842036
125.936489   60.934697
123.502271   62.116928
124.548434   60.616039
123.851087   60.675834
125.950781   60.885548
126.087198   61.978781
123.581884   60.706382
126.216078   61.932527
124.749042   62.375690
123.322195   60.777364
126.516761   61.502323
122.669603   61.411773
126.500914   61.606958
123.831333   62.318766
123.224399   62.168856
124.670805   60.499050
126.368252   61.016180
123.886662   60.559767
124.239506   60.492631
122.574093   61.733944
122.499748   61.314771
126.673623   61.280550
125.405156   60.495153
126.743455   61.786706
123.054559   62.283523
126.668110   60.925129
125.748580   62.467829
126.958387   61.271556
125.271724   60.353316
125.824514   60.467178
123.033367   62.362323
124.770017   60.295512
122.337614   61.977751
122.113318   61.572634
123.797178   60.333634
122.095363   61.455692
124.554617   60.246525
127.157586   61.407237
126.863822   60.862973
125.187711   62.687462
123.152184   60.366421
126.396947   60.491097
124.990146   60.166720
123.762075   60.195159
123.166723   60.321545
125.570455   60.203121
126.977395   62.208259
123.533274   60.208586
121.997701   62.107983
122.302675   60.607262
126.831108   60.569143
127.416396   61.021313
124.483893   60.028663
126.349531   60.301917
124.556106   60.016762
 
Reddening Standards:
 
123.906054   60.736198
124.132285   62.368516
124.878301   61.163229
125.748629   62.097735
122.358908   61.700303
123.637915   60.926918
125.831487   61.152190
123.408648   61.865250
123.768830   62.361376
126.112114   61.937491
124.380989   62.348961
126.348157   61.138066
125.867681   61.735944
124.508577   62.569202
 
Spectrophotometric Standards:
 
124.901444   61.463502
124.129559   61.755156
124.969518   61.119904
125.493417   61.502444
124.769382   61.026048
125.469631   61.304529
124.341204   61.949007
124.236940   60.941770
125.265817   61.930539
123.479795   61.693683
123.592039   61.835574
125.188113   62.132034
126.531544   61.573435
125.901433   62.186709
122.464778   61.275572
122.387125   61.447753
126.808190   61.613329
125.621534   62.412668
125.459340   60.449486
126.869417   61.338977
125.177696   60.399603
123.492104   60.474295
125.905696   60.501645
125.553334   62.570396
124.189504   62.669789
123.599583   60.246845
125.064116   60.095762
121.693278   61.760162
 
Sky fibers:
 
122.309578   62.139677
122.309578   61.939677
126.924817   60.884293
126.924817   60.684293
121.926873   61.024925
121.926873   60.824925
121.805908   61.202616
121.805908   61.002616
124.405795   60.138874
124.788390   62.444006
124.788390   62.244006
123.001837   62.126825
124.959909   61.434833
124.959909   61.234833
123.597990   60.161657
124.116299   61.366078
124.116299   61.166078
123.224377   61.725908
123.224377   61.525908
125.280609   61.653271
125.280609   61.453271
125.194122   62.736322
125.194122   62.536322
125.007270   60.740756
125.007270   60.540756
122.694663   60.507205
122.694663   60.307205
124.655537   60.897062
124.655537   60.697062
123.282955   60.646608
123.282955   60.446608
124.320784   62.573516
124.320784   62.373516
126.141942   60.825527
126.141942   60.625527
123.151557   61.039769
123.151557   60.839769
125.570256   61.724029
125.570256   61.524029
126.011093   60.718963
126.011093   60.518963
125.379830   61.931603
125.379830   61.731603
126.224349   62.559725
126.224349   62.359725
123.990136   61.737073
123.990136   61.537073
125.682970   61.814193
125.682970   61.614193
124.168635   62.105900
124.168635   61.905900
125.733930   61.363544
125.733930   61.163544
126.607138   61.520849
126.607138   61.320849
125.579063   61.578879
125.579063   61.378879
124.812411   62.085412
124.812411   61.885412
124.915549   60.760865
124.915549   60.560865
124.732526   61.557207
124.732526   61.357207
124.294748   60.315108
124.294748   60.115108
125.878687   62.615663
125.878687   62.415663
125.160664   61.881106
125.206161   60.728770
125.206161   60.528770
124.912047   61.708269
124.912047   61.508269
125.621534   62.512668
125.621534   62.312668
125.033734   62.197035
125.033734   61.997035
126.505812   61.352947
126.505812   61.152947
125.900964   61.784522
125.900964   61.584522
123.472233   60.982015
123.472233   60.782015
125.509690   61.890199
122.624166   61.563127
122.624166   61.363127
124.029340   61.209341
124.029340   61.009341
126.835396   61.012249
126.835396   60.812249
127.022427   60.805079
123.961131   61.090831
123.961131   60.890831
124.409435   60.732438
124.409435   60.532438
125.021406   62.138927
123.398540   60.319509
123.398540   60.119509
123.062397   61.487816
123.062397   61.287816
122.975324   60.831954
122.975324   60.631954
122.352939   61.120811
122.352939   60.920811
125.074987   61.505625
125.074987   61.305625
125.103370   62.126888
125.103370   61.926888
125.262597   61.163296
125.262597   60.963296
124.702722   61.266661
124.702722   61.066661
123.081239   61.522707
123.081239   61.322707
123.962802   62.256805
123.962802   62.056805
123.831041   61.166715
123.831041   60.966715
123.825145   62.125209
123.825145   61.925209
123.226565   60.877242
123.226565   60.677242
124.723304   61.514154
124.723304   61.314154
